LabVIEW Measurement	
Writer_Version	2
Reader_Version	2
Separator	Tab
Decimal_Separator	,
Multi_Headings	Yes
X_Columns	No
Time_Pref	Relative
Operator	Laboratoire
Date	2019/02/15
Time	14:55:00,8345295833528968884
***End_of_Header***	
	
Channels	6						
Samples	5	5	1000	1000	1000	1000	
Date	2019/02/15	2019/02/15	2019/02/15	2019/02/15	2019/02/15	2019/02/15	
Time	14:55:00,9205298423767089844	14:55:00,8345295833528968884	14:55:00,9205298423767089844	14:55:00,9205298423767089844	14:55:00,9205298423767089844	14:55:00,9205298423767089844	
Y_Unit_Label		Volts					
X_Dimension	Time	Time	Time	Time	Time	Time	
X0	0,0000000000000000E+0	0,0000000000000000E+0	0,0000000000000000E+0	0,0000000000000000E+0	0,0000000000000000E+0	0,0000000000000000E+0	
Delta_X	1,000000	0,020000	1,000000	1,000000	1,000000	1,000000	
***End_of_Header***							
X_Value	Untitled	Tension	Untitled 1	Untitled 2	Untitled 3	Untitled 4	Comment
	0,000000	-4,963249	0,000000	-4,963249	0,000000	-4,963249
	0,020000	-4,953064	8,000000E-5	-4,963388	8,000000E-5	-4,963186
	0,040000	-4,942880	0,000160	-4,963524	0,000160	-4,963124
	0,060000	-4,927603	0,000240	-4,963659	0,000240	-4,963062
	0,080000	-4,917419	0,000320	-4,963791	0,000320	-4,963000
			0,000400	-4,963921	0,000400	-4,962938
			0,000480	-4,964049	0,000480	-4,962877
			0,000560	-4,964174	0,000560	-4,962816
			0,000640	-4,964297	0,000640	-4,962756
			0,000720	-4,964418	0,000720	-4,962695
			0,000800	-4,964537	0,000800	-4,962636
			0,000880	-4,964653	0,000880	-4,962576
			0,000960	-4,964768	0,000960	-4,962516
			0,001040	-4,964879	0,001040	-4,962457
			0,001120	-4,964989	0,001120	-4,962398
			0,001200	-4,965096	0,001200	-4,962340
			0,001280	-4,965201	0,001280	-4,962282
			0,001360	-4,965303	0,001360	-4,962224
			0,001440	-4,965404	0,001440	-4,962166
			0,001520	-4,965501	0,001520	-4,962108
			0,001600	-4,965597	0,001600	-4,962051
			0,001680	-4,965690	0,001680	-4,961994
			0,001760	-4,965781	0,001760	-4,961938
			0,001840	-4,965869	0,001840	-4,961881
			0,001920	-4,965956	0,001920	-4,961825
			0,002000	-4,966039	0,002000	-4,961769
			0,002080	-4,966121	0,002080	-4,961714
			0,002160	-4,966200	0,002160	-4,961658
			0,002240	-4,966277	0,002240	-4,961603
			0,002320	-4,966351	0,002320	-4,961549
			0,002400	-4,966423	0,002400	-4,961494
			0,002480	-4,966493	0,002480	-4,961440
			0,002560	-4,966560	0,002560	-4,961386
			0,002640	-4,966625	0,002640	-4,961332
			0,002720	-4,966688	0,002720	-4,961278
			0,002800	-4,966748	0,002800	-4,961225
			0,002880	-4,966806	0,002880	-4,961172
			0,002960	-4,966862	0,002960	-4,961119
			0,003040	-4,966915	0,003040	-4,961067
			0,003120	-4,966966	0,003120	-4,961014
			0,003200	-4,967014	0,003200	-4,960962
			0,003280	-4,967060	0,003280	-4,960910
			0,003360	-4,967104	0,003360	-4,960859
			0,003440	-4,967146	0,003440	-4,960807
			0,003520	-4,967185	0,003520	-4,960756
			0,003600	-4,967222	0,003600	-4,960705
			0,003680	-4,967256	0,003680	-4,960655
			0,003760	-4,967288	0,003760	-4,960604
			0,003840	-4,967318	0,003840	-4,960554
			0,003920	-4,967346	0,003920	-4,960504
			0,004000	-4,967371	0,004000	-4,960454
			0,004080	-4,967394	0,004080	-4,960404
			0,004160	-4,967415	0,004160	-4,960355
			0,004240	-4,967433	0,004240	-4,960306
			0,004320	-4,967449	0,004320	-4,960257
			0,004400	-4,967463	0,004400	-4,960208
			0,004480	-4,967475	0,004480	-4,960160
			0,004560	-4,967484	0,004560	-4,960112
			0,004640	-4,967491	0,004640	-4,960063
			0,004720	-4,967496	0,004720	-4,960016
			0,004800	-4,967498	0,004800	-4,959968
			0,004880	-4,967499	0,004880	-4,959920
			0,004960	-4,967497	0,004960	-4,959873
			0,005040	-4,967493	0,005040	-4,959826
			0,005120	-4,967486	0,005120	-4,959779
			0,005200	-4,967478	0,005200	-4,959733
			0,005280	-4,967467	0,005280	-4,959686
			0,005360	-4,967454	0,005360	-4,959640
			0,005440	-4,967439	0,005440	-4,959594
			0,005520	-4,967422	0,005520	-4,959548
			0,005600	-4,967403	0,005600	-4,959502
			0,005680	-4,967382	0,005680	-4,959457
			0,005760	-4,967358	0,005760	-4,959412
			0,005840	-4,967332	0,005840	-4,959366
			0,005920	-4,967305	0,005920	-4,959321
			0,006000	-4,967275	0,006000	-4,959277
			0,006080	-4,967243	0,006080	-4,959232
			0,006160	-4,967209	0,006160	-4,959188
			0,006240	-4,967173	0,006240	-4,959144
			0,006320	-4,967135	0,006320	-4,959100
			0,006400	-4,967095	0,006400	-4,959056
			0,006480	-4,967053	0,006480	-4,959012
			0,006560	-4,967009	0,006560	-4,958969
			0,006640	-4,966963	0,006640	-4,958925
			0,006720	-4,966915	0,006720	-4,958882
			0,006800	-4,966865	0,006800	-4,958839
			0,006880	-4,966813	0,006880	-4,958796
			0,006960	-4,966760	0,006960	-4,958754
			0,007040	-4,966704	0,007040	-4,958711
			0,007120	-4,966646	0,007120	-4,958669
			0,007200	-4,966587	0,007200	-4,958627
			0,007280	-4,966526	0,007280	-4,958585
			0,007360	-4,966462	0,007360	-4,958543
			0,007440	-4,966398	0,007440	-4,958501
			0,007520	-4,966331	0,007520	-4,958459
			0,007600	-4,966262	0,007600	-4,958418
			0,007680	-4,966192	0,007680	-4,958377
			0,007760	-4,966120	0,007760	-4,958336
			0,007840	-4,966046	0,007840	-4,958295
			0,007920	-4,965970	0,007920	-4,958254
			0,008000	-4,965893	0,008000	-4,958213
			0,008080	-4,965814	0,008080	-4,958173
			0,008160	-4,965734	0,008160	-4,958133
			0,008240	-4,965651	0,008240	-4,958092
			0,008320	-4,965567	0,008320	-4,958052
			0,008400	-4,965482	0,008400	-4,958012
			0,008480	-4,965395	0,008480	-4,957973
			0,008560	-4,965306	0,008560	-4,957933
			0,008640	-4,965216	0,008640	-4,957893
			0,008720	-4,965124	0,008720	-4,957854
			0,008800	-4,965031	0,008800	-4,957815
			0,008880	-4,964936	0,008880	-4,957776
			0,008960	-4,964840	0,008960	-4,957737
			0,009040	-4,964742	0,009040	-4,957698
			0,009120	-4,964643	0,009120	-4,957659
			0,009200	-4,964542	0,009200	-4,957621
			0,009280	-4,964440	0,009280	-4,957582
			0,009360	-4,964337	0,009360	-4,957544
			0,009440	-4,964232	0,009440	-4,957506
			0,009520	-4,964126	0,009520	-4,957468
			0,009600	-4,964018	0,009600	-4,957430
			0,009680	-4,963910	0,009680	-4,957392
			0,009760	-4,963800	0,009760	-4,957354
			0,009840	-4,963688	0,009840	-4,957316
			0,009920	-4,963576	0,009920	-4,957279
			0,010000	-4,963462	0,010000	-4,957241
			0,010080	-4,963347	0,010080	-4,957204
			0,010160	-4,963231	0,010160	-4,957167
			0,010240	-4,963114	0,010240	-4,957130
			0,010320	-4,962995	0,010320	-4,957093
			0,010400	-4,962876	0,010400	-4,957056
			0,010480	-4,962755	0,010480	-4,957019
			0,010560	-4,962633	0,010560	-4,956983
			0,010640	-4,962511	0,010640	-4,956946
			0,010720	-4,962387	0,010720	-4,956910
			0,010800	-4,962262	0,010800	-4,956873
			0,010880	-4,962137	0,010880	-4,956837
			0,010960	-4,962010	0,010960	-4,956801
			0,011040	-4,961882	0,011040	-4,956765
			0,011120	-4,961754	0,011120	-4,956729
			0,011200	-4,961624	0,011200	-4,956693
			0,011280	-4,961494	0,011280	-4,956657
			0,011360	-4,961363	0,011360	-4,956622
			0,011440	-4,961231	0,011440	-4,956586
			0,011520	-4,961098	0,011520	-4,956551
			0,011600	-4,960964	0,011600	-4,956515
			0,011680	-4,960830	0,011680	-4,956480
			0,011760	-4,960695	0,011760	-4,956445
			0,011840	-4,960559	0,011840	-4,956410
			0,011920	-4,960423	0,011920	-4,956374
			0,012000	-4,960286	0,012000	-4,956340
			0,012080	-4,960148	0,012080	-4,956305
			0,012160	-4,960009	0,012160	-4,956270
			0,012240	-4,959870	0,012240	-4,956235
			0,012320	-4,959731	0,012320	-4,956200
			0,012400	-4,959591	0,012400	-4,956166
			0,012480	-4,959450	0,012480	-4,956131
			0,012560	-4,959309	0,012560	-4,956097
			0,012640	-4,959167	0,012640	-4,956062
			0,012720	-4,959025	0,012720	-4,956028
			0,012800	-4,958882	0,012800	-4,955994
			0,012880	-4,958739	0,012880	-4,955960
			0,012960	-4,958596	0,012960	-4,955926
			0,013040	-4,958452	0,013040	-4,955892
			0,013120	-4,958308	0,013120	-4,955858
			0,013200	-4,958164	0,013200	-4,955824
			0,013280	-4,958019	0,013280	-4,955790
			0,013360	-4,957874	0,013360	-4,955756
			0,013440	-4,957728	0,013440	-4,955723
			0,013520	-4,957583	0,013520	-4,955689
			0,013600	-4,957437	0,013600	-4,955655
			0,013680	-4,957291	0,013680	-4,955622
			0,013760	-4,957145	0,013760	-4,955588
			0,013840	-4,956998	0,013840	-4,955555
			0,013920	-4,956852	0,013920	-4,955521
			0,014000	-4,956705	0,014000	-4,955488
			0,014080	-4,956558	0,014080	-4,955455
			0,014160	-4,956412	0,014160	-4,955422
			0,014240	-4,956265	0,014240	-4,955389
			0,014320	-4,956118	0,014320	-4,955355
			0,014400	-4,955971	0,014400	-4,955322
			0,014480	-4,955824	0,014480	-4,955289
			0,014560	-4,955677	0,014560	-4,955256
			0,014640	-4,955531	0,014640	-4,955223
			0,014720	-4,955384	0,014720	-4,955191
			0,014800	-4,955237	0,014800	-4,955158
			0,014880	-4,955091	0,014880	-4,955125
			0,014960	-4,954945	0,014960	-4,955092
			0,015040	-4,954799	0,015040	-4,955059
			0,015120	-4,954653	0,015120	-4,955027
			0,015200	-4,954507	0,015200	-4,954994
			0,015280	-4,954361	0,015280	-4,954961
			0,015360	-4,954216	0,015360	-4,954929
			0,015440	-4,954071	0,015440	-4,954896
			0,015520	-4,953926	0,015520	-4,954864
			0,015600	-4,953782	0,015600	-4,954831
			0,015680	-4,953637	0,015680	-4,954799
			0,015760	-4,953494	0,015760	-4,954766
			0,015840	-4,953350	0,015840	-4,954734
			0,015920	-4,953207	0,015920	-4,954702
			0,016000	-4,953064	0,016000	-4,954669
			0,016080	-4,952922	0,016080	-4,954637
			0,016160	-4,952780	0,016160	-4,954605
			0,016240	-4,952639	0,016240	-4,954572
			0,016320	-4,952498	0,016320	-4,954540
			0,016400	-4,952357	0,016400	-4,954508
			0,016480	-4,952217	0,016480	-4,954476
			0,016560	-4,952078	0,016560	-4,954444
			0,016640	-4,951939	0,016640	-4,954411
			0,016720	-4,951801	0,016720	-4,954379
			0,016800	-4,951663	0,016800	-4,954347
			0,016880	-4,951526	0,016880	-4,954315
			0,016960	-4,951389	0,016960	-4,954283
			0,017040	-4,951253	0,017040	-4,954251
			0,017120	-4,951118	0,017120	-4,954219
			0,017200	-4,950983	0,017200	-4,954187
			0,017280	-4,950849	0,017280	-4,954155
			0,017360	-4,950716	0,017360	-4,954122
			0,017440	-4,950583	0,017440	-4,954090
			0,017520	-4,950451	0,017520	-4,954058
			0,017600	-4,950320	0,017600	-4,954026
			0,017680	-4,950190	0,017680	-4,953994
			0,017760	-4,950060	0,017760	-4,953962
			0,017840	-4,949931	0,017840	-4,953930
			0,017920	-4,949803	0,017920	-4,953898
			0,018000	-4,949676	0,018000	-4,953866
			0,018080	-4,949549	0,018080	-4,953834
			0,018160	-4,949424	0,018160	-4,953802
			0,018240	-4,949299	0,018240	-4,953770
			0,018320	-4,949175	0,018320	-4,953738
			0,018400	-4,949052	0,018400	-4,953706
			0,018480	-4,948930	0,018480	-4,953674
			0,018560	-4,948808	0,018560	-4,953642
			0,018640	-4,948688	0,018640	-4,953610
			0,018720	-4,948569	0,018720	-4,953578
			0,018800	-4,948450	0,018800	-4,953546
			0,018880	-4,948333	0,018880	-4,953514
			0,018960	-4,948216	0,018960	-4,953482
			0,019040	-4,948100	0,019040	-4,953450
			0,019120	-4,947986	0,019120	-4,953418
			0,019200	-4,947872	0,019200	-4,953386
			0,019280	-4,947759	0,019280	-4,953354
			0,019360	-4,947648	0,019360	-4,953322
			0,019440	-4,947537	0,019440	-4,953290
			0,019520	-4,947428	0,019520	-4,953257
			0,019600	-4,947319	0,019600	-4,953225
			0,019680	-4,947212	0,019680	-4,953193
			0,019760	-4,947105	0,019760	-4,953161
			0,019840	-4,947000	0,019840	-4,953129
			0,019920	-4,946895	0,019920	-4,953096
			0,020000	-4,946792	0,020000	-4,953064
			0,020080	-4,946690	0,020080	-4,953032
			0,020160	-4,946589	0,020160	-4,953000
			0,020240	-4,946489	0,020240	-4,952967
			0,020320	-4,946390	0,020320	-4,952935
			0,020400	-4,946293	0,020400	-4,952903
			0,020480	-4,946196	0,020480	-4,952870
			0,020560	-4,946101	0,020560	-4,952838
			0,020640	-4,946006	0,020640	-4,952806
			0,020720	-4,945913	0,020720	-4,952773
			0,020800	-4,945821	0,020800	-4,952741
			0,020880	-4,945730	0,020880	-4,952708
			0,020960	-4,945641	0,020960	-4,952676
			0,021040	-4,945552	0,021040	-4,952643
			0,021120	-4,945465	0,021120	-4,952610
			0,021200	-4,945379	0,021200	-4,952578
			0,021280	-4,945294	0,021280	-4,952545
			0,021360	-4,945210	0,021360	-4,952512
			0,021440	-4,945128	0,021440	-4,952480
			0,021520	-4,945046	0,021520	-4,952447
			0,021600	-4,944966	0,021600	-4,952414
			0,021680	-4,944887	0,021680	-4,952381
			0,021760	-4,944809	0,021760	-4,952348
			0,021840	-4,944733	0,021840	-4,952315
			0,021920	-4,944657	0,021920	-4,952283
			0,022000	-4,944583	0,022000	-4,952250
			0,022080	-4,944510	0,022080	-4,952217
			0,022160	-4,944438	0,022160	-4,952183
			0,022240	-4,944368	0,022240	-4,952150
			0,022320	-4,944298	0,022320	-4,952117
			0,022400	-4,944230	0,022400	-4,952084
			0,022480	-4,944163	0,022480	-4,952051
			0,022560	-4,944098	0,022560	-4,952018
			0,022640	-4,944033	0,022640	-4,951984
			0,022720	-4,943970	0,022720	-4,951951
			0,022800	-4,943908	0,022800	-4,951917
			0,022880	-4,943847	0,022880	-4,951884
			0,022960	-4,943787	0,022960	-4,951850
			0,023040	-4,943729	0,023040	-4,951817
			0,023120	-4,943671	0,023120	-4,951783
			0,023200	-4,943615	0,023200	-4,951750
			0,023280	-4,943560	0,023280	-4,951716
			0,023360	-4,943507	0,023360	-4,951682
			0,023440	-4,943454	0,023440	-4,951648
			0,023520	-4,943403	0,023520	-4,951615
			0,023600	-4,943353	0,023600	-4,951581
			0,023680	-4,943304	0,023680	-4,951547
			0,023760	-4,943256	0,023760	-4,951513
			0,023840	-4,943210	0,023840	-4,951479
			0,023920	-4,943165	0,023920	-4,951444
			0,024000	-4,943120	0,024000	-4,951410
			0,024080	-4,943077	0,024080	-4,951376
			0,024160	-4,943035	0,024160	-4,951342
			0,024240	-4,942995	0,024240	-4,951307
			0,024320	-4,942955	0,024320	-4,951273
			0,024400	-4,942917	0,024400	-4,951239
			0,024480	-4,942879	0,024480	-4,951204
			0,024560	-4,942843	0,024560	-4,951169
			0,024640	-4,942808	0,024640	-4,951135
			0,024720	-4,942774	0,024720	-4,951100
			0,024800	-4,942741	0,024800	-4,951065
			0,024880	-4,942710	0,024880	-4,951030
			0,024960	-4,942679	0,024960	-4,950996
			0,025040	-4,942649	0,025040	-4,950961
			0,025120	-4,942621	0,025120	-4,950926
			0,025200	-4,942593	0,025200	-4,950891
			0,025280	-4,942567	0,025280	-4,950855
			0,025360	-4,942542	0,025360	-4,950820
			0,025440	-4,942518	0,025440	-4,950785
			0,025520	-4,942494	0,025520	-4,950750
			0,025600	-4,942472	0,025600	-4,950714
			0,025680	-4,942451	0,025680	-4,950679
			0,025760	-4,942431	0,025760	-4,950643
			0,025840	-4,942412	0,025840	-4,950607
			0,025920	-4,942393	0,025920	-4,950572
			0,026000	-4,942376	0,026000	-4,950536
			0,026080	-4,942360	0,026080	-4,950500
			0,026160	-4,942345	0,026160	-4,950464
			0,026240	-4,942330	0,026240	-4,950428
			0,026320	-4,942317	0,026320	-4,950392
			0,026400	-4,942304	0,026400	-4,950356
			0,026480	-4,942293	0,026480	-4,950320
			0,026560	-4,942282	0,026560	-4,950284
			0,026640	-4,942272	0,026640	-4,950247
			0,026720	-4,942263	0,026720	-4,950211
			0,026800	-4,942255	0,026800	-4,950174
			0,026880	-4,942248	0,026880	-4,950138
			0,026960	-4,942242	0,026960	-4,950101
			0,027040	-4,942236	0,027040	-4,950065
			0,027120	-4,942232	0,027120	-4,950028
			0,027200	-4,942228	0,027200	-4,949991
			0,027280	-4,942224	0,027280	-4,949954
			0,027360	-4,942222	0,027360	-4,949917
			0,027440	-4,942220	0,027440	-4,949880
			0,027520	-4,942220	0,027520	-4,949843
			0,027600	-4,942219	0,027600	-4,949805
			0,027680	-4,942220	0,027680	-4,949768
			0,027760	-4,942221	0,027760	-4,949731
			0,027840	-4,942223	0,027840	-4,949693
			0,027920	-4,942226	0,027920	-4,949656
			0,028000	-4,942229	0,028000	-4,949618
			0,028080	-4,942233	0,028080	-4,949580
			0,028160	-4,942238	0,028160	-4,949542
			0,028240	-4,942243	0,028240	-4,949504
			0,028320	-4,942249	0,028320	-4,949466
			0,028400	-4,942255	0,028400	-4,949428
			0,028480	-4,942262	0,028480	-4,949390
			0,028560	-4,942269	0,028560	-4,949352
			0,028640	-4,942277	0,028640	-4,949314
			0,028720	-4,942286	0,028720	-4,949275
			0,028800	-4,942295	0,028800	-4,949237
			0,028880	-4,942305	0,028880	-4,949198
			0,028960	-4,942315	0,028960	-4,949159
			0,029040	-4,942325	0,029040	-4,949121
			0,029120	-4,942336	0,029120	-4,949082
			0,029200	-4,942347	0,029200	-4,949043
			0,029280	-4,942359	0,029280	-4,949004
			0,029360	-4,942371	0,029360	-4,948965
			0,029440	-4,942384	0,029440	-4,948925
			0,029520	-4,942397	0,029520	-4,948886
			0,029600	-4,942410	0,029600	-4,948847
			0,029680	-4,942423	0,029680	-4,948807
			0,029760	-4,942437	0,029760	-4,948768
			0,029840	-4,942451	0,029840	-4,948728
			0,029920	-4,942466	0,029920	-4,948688
			0,030000	-4,942481	0,030000	-4,948648
			0,030080	-4,942495	0,030080	-4,948608
			0,030160	-4,942511	0,030160	-4,948568
			0,030240	-4,942526	0,030240	-4,948528
			0,030320	-4,942542	0,030320	-4,948488
			0,030400	-4,942557	0,030400	-4,948448
			0,030480	-4,942573	0,030480	-4,948407
			0,030560	-4,942589	0,030560	-4,948367
			0,030640	-4,942605	0,030640	-4,948326
			0,030720	-4,942621	0,030720	-4,948286
			0,030800	-4,942638	0,030800	-4,948245
			0,030880	-4,942654	0,030880	-4,948204
			0,030960	-4,942670	0,030960	-4,948163
			0,031040	-4,942687	0,031040	-4,948122
			0,031120	-4,942703	0,031120	-4,948081
			0,031200	-4,942720	0,031200	-4,948040
			0,031280	-4,942736	0,031280	-4,947998
			0,031360	-4,942753	0,031360	-4,947957
			0,031440	-4,942769	0,031440	-4,947915
			0,031520	-4,942785	0,031520	-4,947874
			0,031600	-4,942801	0,031600	-4,947832
			0,031680	-4,942817	0,031680	-4,947790
			0,031760	-4,942833	0,031760	-4,947748
			0,031840	-4,942849	0,031840	-4,947706
			0,031920	-4,942864	0,031920	-4,947664
			0,032000	-4,942880	0,032000	-4,947622
			0,032080	-4,942895	0,032080	-4,947579
			0,032160	-4,942910	0,032160	-4,947537
			0,032240	-4,942925	0,032240	-4,947494
			0,032320	-4,942939	0,032320	-4,947452
			0,032400	-4,942954	0,032400	-4,947409
			0,032480	-4,942967	0,032480	-4,947366
			0,032560	-4,942981	0,032560	-4,947323
			0,032640	-4,942994	0,032640	-4,947280
			0,032720	-4,943007	0,032720	-4,947237
			0,032800	-4,943020	0,032800	-4,947194
			0,032880	-4,943032	0,032880	-4,947151
			0,032960	-4,943044	0,032960	-4,947107
			0,033040	-4,943055	0,033040	-4,947064
			0,033120	-4,943066	0,033120	-4,947020
			0,033200	-4,943077	0,033200	-4,946976
			0,033280	-4,943087	0,033280	-4,946933
			0,033360	-4,943097	0,033360	-4,946889
			0,033440	-4,943106	0,033440	-4,946845
			0,033520	-4,943114	0,033520	-4,946801
			0,033600	-4,943123	0,033600	-4,946756
			0,033680	-4,943130	0,033680	-4,946712
			0,033760	-4,943137	0,033760	-4,946668
			0,033840	-4,943143	0,033840	-4,946623
			0,033920	-4,943149	0,033920	-4,946578
			0,034000	-4,943154	0,034000	-4,946534
			0,034080	-4,943159	0,034080	-4,946489
			0,034160	-4,943163	0,034160	-4,946444
			0,034240	-4,943166	0,034240	-4,946399
			0,034320	-4,943169	0,034320	-4,946354
			0,034400	-4,943171	0,034400	-4,946308
			0,034480	-4,943172	0,034480	-4,946263
			0,034560	-4,943172	0,034560	-4,946217
			0,034640	-4,943172	0,034640	-4,946172
			0,034720	-4,943171	0,034720	-4,946126
			0,034800	-4,943169	0,034800	-4,946080
			0,034880	-4,943167	0,034880	-4,946035
			0,034960	-4,943164	0,034960	-4,945989
			0,035040	-4,943160	0,035040	-4,945942
			0,035120	-4,943155	0,035120	-4,945896
			0,035200	-4,943149	0,035200	-4,945850
			0,035280	-4,943142	0,035280	-4,945804
			0,035360	-4,943135	0,035360	-4,945757
			0,035440	-4,943126	0,035440	-4,945710
			0,035520	-4,943117	0,035520	-4,945664
			0,035600	-4,943107	0,035600	-4,945617
			0,035680	-4,943096	0,035680	-4,945570
			0,035760	-4,943084	0,035760	-4,945523
			0,035840	-4,943071	0,035840	-4,945476
			0,035920	-4,943057	0,035920	-4,945429
			0,036000	-4,943042	0,036000	-4,945381
			0,036080	-4,943026	0,036080	-4,945334
			0,036160	-4,943009	0,036160	-4,945286
			0,036240	-4,942991	0,036240	-4,945238
			0,036320	-4,942972	0,036320	-4,945191
			0,036400	-4,942953	0,036400	-4,945143
			0,036480	-4,942932	0,036480	-4,945095
			0,036560	-4,942910	0,036560	-4,945047
			0,036640	-4,942886	0,036640	-4,944999
			0,036720	-4,942862	0,036720	-4,944950
			0,036800	-4,942837	0,036800	-4,944902
			0,036880	-4,942811	0,036880	-4,944853
			0,036960	-4,942783	0,036960	-4,944805
